#statistical_std_by_pixel_rest_UV-bands_median_H-alpha_noDC.txt
#
#Rest-frame Wavelength (A) | Luminosity 1-Sigma Uncertainty (erg/s/A)
#
1110.00000	0.00000e+00
1110.80630	2.90051e+59
1111.61260	1.88914e+59
1112.41890	1.45566e+59
1113.22520	1.22864e+59
1114.03150	1.22496e+59
1114.83780	1.25501e+59
1115.64410	9.54801e+58
1116.45040	1.20488e+59
1117.25670	8.94045e+58
1118.06300	8.17162e+58
1118.86930	6.65909e+58
1119.67560	5.40988e+58
1120.48190	4.82988e+58
1121.28820	4.60995e+58
1122.09450	4.75619e+58
1122.90080	4.72807e+58
1123.70710	3.84911e+58
1124.51340	3.88940e+58
1125.31970	3.44925e+58
1126.12600	3.09796e+58
1126.93230	2.24122e+58
1127.73860	2.92422e+58
1128.54490	2.66143e+58
1129.35120	2.24020e+58
1130.15750	2.31774e+58
1130.96380	2.14018e+58
1131.77010	2.18931e+58
1132.57640	2.05842e+58
1133.38270	1.84224e+58
1134.18900	1.44908e+58
1134.99530	1.69293e+58
1135.80160	1.52454e+58
1136.60790	1.14438e+58
1137.41420	1.33274e+58
1138.22050	1.32629e+58
1139.02680	1.16411e+58
1139.83310	1.07311e+58
1140.63940	9.42535e+57
1141.44570	1.21213e+58
1142.25200	1.19603e+58
1143.05830	1.04590e+58
1143.86460	1.10127e+58
1144.67090	1.05701e+58
1145.47720	7.62032e+57
1146.28350	7.20263e+57
1147.08980	6.43088e+57
1147.89610	6.82054e+57
1148.70240	6.99712e+57
1149.50870	5.99927e+57
1150.31500	6.27044e+57
1151.12130	6.66236e+57
1151.92760	6.37141e+57
1152.73390	7.03008e+57
1153.54020	6.46194e+57
1154.34650	4.75436e+57
1155.15280	5.35658e+57
1155.95910	5.87835e+57
1156.76540	6.80947e+57
1157.57170	5.83052e+57
1158.37800	5.61870e+57
1159.18430	4.80704e+57
1159.99060	5.22729e+57
1160.79690	5.03475e+57
1161.60320	5.07390e+57
1162.40950	4.53558e+57
1163.21580	5.72454e+57
1164.02210	4.46345e+57
1164.82840	4.79085e+57
1165.63470	4.62717e+57
1166.44100	4.27025e+57
1167.24730	4.52407e+57
1168.05360	3.64929e+57
1168.85990	3.81010e+57
1169.66620	4.40583e+57
1170.47250	4.60291e+57
1171.27880	4.92922e+57
1172.08510	5.41230e+57
1172.89140	5.10610e+57
1173.69770	3.93023e+57
1174.50400	3.61528e+57
1175.31030	3.27968e+57
1176.11660	3.19080e+57
1176.92290	2.33349e+57
1177.72920	2.37584e+57
1178.53550	2.77816e+57
1179.34180	3.22316e+57
1180.14810	3.26186e+57
1180.95440	3.01534e+57
1181.76070	2.80866e+57
1182.56700	2.67291e+57
1183.37330	2.45574e+57
1184.17960	2.39205e+57
1184.98590	2.55650e+57
1185.79220	2.71834e+57
1186.59850	2.82972e+57
1187.40480	2.82730e+57
1188.21110	3.12434e+57
1189.01740	2.91188e+57
1189.82370	3.37342e+57
1190.63000	2.99199e+57
1191.43630	2.89836e+57
1192.24260	2.63278e+57
1193.04890	2.24053e+57
1193.85520	2.51816e+57
1194.66150	3.05927e+57
1195.46780	3.12221e+57
1196.27410	2.77777e+57
1197.08040	2.56314e+57
1197.88670	2.17388e+57
1198.69300	1.99818e+57
1199.49930	2.15696e+57
1200.30560	2.22158e+57
1201.11190	2.34590e+57
1201.91820	2.28704e+57
1202.72450	2.03610e+57
1203.53080	2.29607e+57
1204.33710	2.06404e+57
1205.14340	2.15223e+57
1205.94970	1.98788e+57
1206.75600	1.85745e+57
1207.56230	1.93515e+57
1208.36860	2.15352e+57
1209.17490	1.96280e+57
1209.98120	2.04526e+57
1210.78750	2.37765e+57
1211.59380	2.27697e+57
1212.40010	1.96071e+57
1213.20640	1.84721e+57
1214.01270	1.80784e+57
1214.81900	1.96317e+57
1215.62530	2.26187e+57
1216.43160	2.46425e+57
1217.23790	2.37534e+57
1218.04420	2.79302e+57
1218.85050	2.81577e+57
1219.65680	2.77796e+57
1220.46310	2.58976e+57
1221.26940	2.12997e+57
1222.07570	2.14900e+57
1222.88200	2.08768e+57
1223.68830	1.86566e+57
1224.49460	1.65576e+57
1225.30090	1.51942e+57
1226.10720	1.56589e+57
1226.91350	1.62744e+57
1227.71980	1.80700e+57
1228.52610	1.64368e+57
1229.33240	2.03768e+57
1230.13870	1.94292e+57
1230.94500	1.70510e+57
1231.75130	1.39995e+57
1232.55760	1.43680e+57
1233.36390	1.20091e+57
1234.17020	1.34240e+57
1234.97650	1.38236e+57
1235.78280	1.34778e+57
1236.58910	1.39660e+57
1237.39540	1.35683e+57
1238.20170	1.41908e+57
1239.00800	1.49516e+57
1239.81430	1.57705e+57
1240.62060	1.58925e+57
1241.42690	1.38099e+57
1242.23320	1.37174e+57
1243.03950	1.23147e+57
1243.84580	1.30552e+57
1244.65210	1.39079e+57
1245.45840	1.53994e+57
1246.26470	1.53353e+57
1247.07100	1.63431e+57
1247.87730	1.51290e+57
1248.68360	1.53592e+57
1249.48990	1.96586e+57
1250.29620	1.98770e+57
1251.10250	1.75247e+57
1251.90880	1.63833e+57
1252.71510	1.43512e+57
1253.52140	1.37372e+57
1254.32770	1.24677e+57
1255.13400	1.27697e+57
1255.94030	1.26675e+57
1256.74660	1.14115e+57
1257.55290	1.25023e+57
1258.35920	1.34046e+57
1259.16550	1.26814e+57
1259.97180	1.04149e+57
1260.77810	1.28152e+57
1261.58440	1.41404e+57
1262.39070	1.35699e+57
1263.19700	1.21676e+57
1264.00330	1.12143e+57
1264.80960	1.16827e+57
1265.61590	1.17527e+57
1266.42220	1.10010e+57
1267.22850	1.10648e+57
1268.03480	1.09759e+57
1268.84110	1.14137e+57
1269.64740	1.20661e+57
1270.45370	1.22409e+57
1271.26000	1.34519e+57
1272.06630	1.46083e+57
1272.87260	1.35557e+57
1273.67890	1.32283e+57
1274.48520	1.24104e+57
1275.29150	1.25392e+57
1276.09780	1.21450e+57
1276.90410	1.20051e+57
1277.71040	1.21363e+57
1278.51670	1.16415e+57
1279.32300	1.15629e+57
1280.12930	1.06113e+57
1280.93560	1.11521e+57
1281.74190	1.18067e+57
1282.54820	1.22977e+57
1283.35450	1.20317e+57
1284.16080	1.35026e+57
1284.96710	1.33135e+57
1285.77340	1.23612e+57
1286.57970	1.34526e+57
1287.38600	1.42311e+57
1288.19230	1.43773e+57
1288.99860	1.37407e+57
1289.80490	1.24798e+57
1290.61120	1.08199e+57
1291.41750	1.15348e+57
1292.22380	1.10818e+57
1293.03010	1.09151e+57
1293.83640	1.11139e+57
1294.64270	1.08973e+57
1295.44900	1.11849e+57
1296.25530	1.08174e+57
1297.06160	1.13044e+57
1297.86790	1.24383e+57
1298.67420	1.20852e+57
1299.48050	1.10637e+57
1300.28680	1.00753e+57
1301.09310	1.00983e+57
1301.89940	8.69359e+56
1302.70570	9.04253e+56
1303.51200	8.61520e+56
1304.31830	8.25826e+56
1305.12460	8.07151e+56
1305.93090	8.57647e+56
1306.73720	8.51072e+56
1307.54350	8.84235e+56
1308.34980	9.60762e+56
1309.15610	1.07760e+57
1309.96240	1.25199e+57
1310.76870	1.34064e+57
1311.57500	1.53477e+57
1312.38130	1.50054e+57
1313.18760	1.46081e+57
1313.99390	1.36581e+57
1314.80020	1.15578e+57
1315.60650	1.23945e+57
1316.41280	1.22600e+57
1317.21910	1.14534e+57
1318.02540	1.01686e+57
1318.83170	9.30936e+56
1319.63800	8.67311e+56
1320.44430	9.03168e+56
1321.25060	8.78737e+56
1322.05690	8.78062e+56
1322.86320	8.28170e+56
1323.66950	8.35598e+56
1324.47580	8.33025e+56
1325.28210	8.25180e+56
1326.08840	9.20527e+56
1326.89470	9.98626e+56
1327.70100	9.36918e+56
1328.50730	9.35155e+56
1329.31360	1.02626e+57
1330.11990	9.16440e+56
1330.92620	8.72037e+56
1331.73250	8.09072e+56
1332.53880	8.44856e+56
1333.34510	7.79214e+56
1334.15140	7.34430e+56
1334.95770	7.41664e+56
1335.76400	7.80599e+56
1336.57030	7.71206e+56
1337.37660	8.41806e+56
1338.18290	8.72113e+56
1338.98920	8.41292e+56
1339.79550	9.01899e+56
1340.60180	9.11408e+56
1341.40810	9.83998e+56
1342.21440	9.28662e+56
1343.02070	1.03093e+57
1343.82700	1.10843e+57
1344.63330	1.06039e+57
1345.43960	1.19097e+57
1346.24590	1.11248e+57
1347.05220	1.03063e+57
1347.85850	9.82153e+56
1348.66480	9.75819e+56
1349.47110	9.11033e+56
1350.27740	8.96431e+56
1351.08370	8.21508e+56
1351.89000	8.54137e+56
1352.69630	8.22663e+56
1353.50260	8.35810e+56
1354.30890	7.70853e+56
1355.11520	7.98744e+56
1355.92150	7.84326e+56
1356.72780	7.79030e+56
1357.53410	7.66329e+56
1358.34040	7.66328e+56
1359.14670	7.74770e+56
1359.95300	7.85927e+56
1360.75930	7.68447e+56
1361.56560	7.94676e+56
1362.37190	7.90987e+56
1363.17820	8.11204e+56
1363.98450	9.14931e+56
1364.79080	9.18459e+56
1365.59710	9.42069e+56
1366.40340	9.20755e+56
1367.20970	9.36112e+56
1368.01600	9.20858e+56
1368.82230	9.39124e+56
1369.62860	1.00442e+57
1370.43490	9.16574e+56
1371.24120	8.52113e+56
1372.04750	8.98321e+56
1372.85380	8.81334e+56
1373.66010	8.45686e+56
1374.46640	7.86045e+56
1375.27270	7.54333e+56
1376.07900	7.15714e+56
1376.88530	7.08885e+56
1377.69160	7.36318e+56
1378.49790	7.12305e+56
1379.30420	7.53501e+56
1380.11050	8.23464e+56
1380.91680	8.47088e+56
1381.72310	8.46208e+56
1382.52940	8.46521e+56
1383.33570	9.22366e+56
1384.14200	9.23985e+56
1384.94830	8.71616e+56
1385.75460	9.19682e+56
1386.56090	9.09644e+56
1387.36720	9.21015e+56
1388.17350	9.74433e+56
1388.97980	9.37450e+56
1389.78610	9.38422e+56
1390.59240	8.71823e+56
1391.39870	8.85380e+56
1392.20500	7.96801e+56
1393.01130	7.67226e+56
1393.81760	7.85377e+56
1394.62390	7.57459e+56
1395.43020	7.33776e+56
1396.23650	7.48296e+56
1397.04280	7.66845e+56
1397.84910	7.39707e+56
1398.65540	7.14679e+56
1399.46170	7.39582e+56
1400.26800	7.54398e+56
1401.07430	7.21275e+56
1401.88060	6.81514e+56
1402.68690	6.46957e+56
1403.49320	6.41962e+56
1404.29950	7.05252e+56
1405.10580	6.54408e+56
1405.91210	6.60317e+56
1406.71840	6.91710e+56
1407.52470	6.75823e+56
1408.33100	6.85791e+56
1409.13730	6.95650e+56
1409.94360	6.99066e+56
1410.74990	7.23665e+56
1411.55620	7.03509e+56
1412.36250	6.88514e+56
1413.16880	7.47606e+56
1413.97510	7.44594e+56
1414.78140	7.91306e+56
1415.58770	8.02001e+56
1416.39400	9.03144e+56
1417.20030	9.16864e+56
1418.00660	9.28090e+56
1418.81290	9.40663e+56
1419.61920	9.22472e+56
1420.42550	8.48459e+56
1421.23180	8.76240e+56
1422.03810	8.26983e+56
1422.84440	8.59275e+56
1423.65070	8.58126e+56
1424.45700	7.82275e+56
1425.26330	7.57371e+56
1426.06960	7.28839e+56
1426.87590	6.69517e+56
1427.68220	6.71878e+56
1428.48850	6.68866e+56
1429.29480	6.95699e+56
1430.10110	6.56153e+56
1430.90740	6.12800e+56
1431.71370	6.27167e+56
1432.52000	6.19454e+56
1433.32630	5.61876e+56
1434.13260	5.30246e+56
1434.93890	5.58533e+56
1435.74520	5.43304e+56
1436.55150	5.46167e+56
1437.35780	5.45695e+56
1438.16410	5.67332e+56
1438.97040	5.59995e+56
1439.77670	5.76604e+56
1440.58300	5.81206e+56
1441.38930	5.88147e+56
1442.19560	5.84584e+56
1443.00190	6.35408e+56
1443.80820	6.45463e+56
1444.61450	6.47264e+56
1445.42080	6.87230e+56
1446.22710	6.91388e+56
1447.03340	6.64512e+56
1447.83970	6.46704e+56
1448.64600	6.64692e+56
1449.45230	6.59916e+56
1450.25860	6.64697e+56
1451.06490	6.61521e+56
1451.87120	5.90283e+56
1452.67750	5.49237e+56
1453.48380	5.93270e+56
1454.29010	5.57589e+56
1455.09640	5.89581e+56
1455.90270	6.50683e+56
1456.70900	6.21925e+56
1457.51530	6.83173e+56
1458.32160	7.02998e+56
1459.12790	7.37410e+56
1459.93420	7.33399e+56
1460.74050	7.07504e+56
1461.54680	6.70523e+56
1462.35310	7.08257e+56
1463.15940	7.33084e+56
1463.96570	7.70636e+56
1464.77200	7.34406e+56
1465.57830	6.67439e+56
1466.38460	6.26900e+56
1467.19090	6.09921e+56
1467.99720	6.07449e+56
1468.80350	6.20047e+56
1469.60980	6.64012e+56
1470.41610	6.85108e+56
1471.22240	6.56071e+56
1472.02870	6.86058e+56
1472.83500	6.58990e+56
1473.64130	6.62421e+56
1474.44760	6.80131e+56
1475.25390	6.63432e+56
1476.06020	6.74743e+56
1476.86650	6.34970e+56
1477.67280	6.51847e+56
1478.47910	6.16360e+56
1479.28540	6.17834e+56
1480.09170	6.36749e+56
1480.89800	6.38018e+56
1481.70430	6.34166e+56
1482.51060	6.70099e+56
1483.31690	6.51957e+56
1484.12320	6.89655e+56
1484.92950	6.30505e+56
1485.73580	6.49098e+56
1486.54210	6.44636e+56
1487.34840	6.18784e+56
1488.15470	6.59503e+56
1488.96100	6.36602e+56
1489.76730	6.44004e+56
1490.57360	5.67489e+56
1491.37990	5.67078e+56
1492.18620	5.61790e+56
1492.99250	5.77681e+56
1493.79880	6.03275e+56
1494.60510	6.01227e+56
1495.41140	6.34346e+56
1496.21770	6.28868e+56
1497.02400	6.35643e+56
1497.83030	5.63045e+56
1498.63660	5.53068e+56
1499.44290	5.81841e+56
1500.24920	5.74737e+56
1501.05550	5.86532e+56
1501.86180	6.01056e+56
1502.66810	5.90983e+56
1503.47440	6.15241e+56
1504.28070	6.23098e+56
1505.08700	6.48820e+56
1505.89330	5.91185e+56
1506.69960	5.85444e+56
1507.50590	5.83904e+56
1508.31220	6.16550e+56
1509.11850	5.96703e+56
1509.92480	5.47277e+56
1510.73110	5.53557e+56
1511.53740	5.37223e+56
1512.34370	5.59917e+56
1513.15000	5.37915e+56
1513.95630	5.36758e+56
1514.76260	5.25057e+56
1515.56890	5.62017e+56
1516.37520	5.39266e+56
1517.18150	5.25420e+56
1517.98780	5.32879e+56
1518.79410	5.26572e+56
1519.60040	5.46473e+56
1520.40670	5.54086e+56
1521.21300	5.55603e+56
1522.01930	5.41616e+56
1522.82560	5.37382e+56
1523.63190	5.22362e+56
1524.43820	5.42462e+56
1525.24450	5.52320e+56
1526.05080	5.40037e+56
1526.85710	5.28689e+56
1527.66340	5.21209e+56
1528.46970	5.43765e+56
1529.27600	5.66053e+56
1530.08230	5.42026e+56
1530.88860	5.26856e+56
1531.69490	5.23509e+56
1532.50120	5.31778e+56
1533.30750	4.96973e+56
1534.11380	4.98425e+56
1534.92010	5.19093e+56
1535.72640	5.17180e+56
1536.53270	5.41252e+56
1537.33900	5.51837e+56
1538.14530	5.31037e+56
1538.95160	6.25863e+56
1539.75790	5.78718e+56
1540.56420	6.20108e+56
1541.37050	5.76865e+56
1542.17680	5.98625e+56
1542.98310	5.96028e+56
1543.78940	5.88575e+56
1544.59570	6.00769e+56
1545.40200	5.69634e+56
1546.20830	5.60706e+56
1547.01460	5.42402e+56
1547.82090	5.08868e+56
1548.62720	4.83053e+56
1549.43350	5.46923e+56
1550.23980	5.70508e+56
1551.04610	5.40116e+56
1551.85240	5.67583e+56
1552.65870	5.30401e+56
1553.46500	5.15615e+56
1554.27130	5.26796e+56
1555.07760	5.20460e+56
1555.88390	5.14694e+56
1556.69020	4.91485e+56
1557.49650	5.17593e+56
1558.30280	5.33285e+56
1559.10910	5.15007e+56
1559.91540	4.91889e+56
1560.72170	5.03151e+56
1561.52800	5.35185e+56
1562.33430	5.25571e+56
1563.14060	5.32327e+56
1563.94690	4.91384e+56
1564.75320	4.77397e+56
1565.55950	4.56429e+56
1566.36580	4.89150e+56
1567.17210	4.97083e+56
1567.97840	4.95491e+56
1568.78470	5.03954e+56
1569.59100	4.92773e+56
1570.39730	5.20174e+56
1571.20360	4.87908e+56
1572.00990	4.90818e+56
1572.81620	5.03024e+56
1573.62250	5.30293e+56
1574.42880	5.14034e+56
1575.23510	4.96390e+56
1576.04140	5.14696e+56
1576.84770	5.18523e+56
1577.65400	4.95782e+56
1578.46030	5.28697e+56
1579.26660	5.11804e+56
1580.07290	4.88081e+56
1580.87920	4.74921e+56
1581.68550	4.85869e+56
1582.49180	4.90313e+56
1583.29810	4.87304e+56
1584.10440	5.05992e+56
1584.91070	5.27373e+56
1585.71700	5.02222e+56
1586.52330	4.88979e+56
1587.32960	4.79881e+56
1588.13590	4.91296e+56
1588.94220	4.82783e+56
1589.74850	4.88213e+56
1590.55480	4.74405e+56
1591.36110	4.77124e+56
1592.16740	4.57030e+56
1592.97370	4.69582e+56
1593.78000	4.80174e+56
1594.58630	4.83012e+56
1595.39260	4.93972e+56
1596.19890	5.30527e+56
1597.00520	5.32369e+56
1597.81150	4.84985e+56
1598.61780	5.24966e+56
1599.42410	5.12030e+56
1600.23040	4.90153e+56
1601.03670	5.05074e+56
1601.84300	5.08759e+56
1602.64930	5.31942e+56
1603.45560	5.31063e+56
1604.26190	5.10612e+56
1605.06820	4.87305e+56
1605.87450	5.09417e+56
1606.68080	4.99821e+56
1607.48710	5.10708e+56
1608.29340	5.17882e+56
1609.09970	5.15731e+56
1609.90600	5.50191e+56
1610.71230	5.95103e+56
1611.51860	5.68571e+56
1612.32490	5.42378e+56
1613.13120	5.46231e+56
1613.93750	5.22743e+56
1614.74380	5.69391e+56
1615.55010	5.57557e+56
1616.35640	5.68771e+56
1617.16270	5.93493e+56
1617.96900	5.72427e+56
1618.77530	5.97599e+56
1619.58160	6.22838e+56
1620.38790	6.15276e+56
1621.19420	5.94647e+56
1622.00050	6.05216e+56
1622.80680	5.72623e+56
1623.61310	5.99315e+56
1624.41940	6.07433e+56
1625.22570	6.07206e+56
1626.03200	6.29547e+56
1626.83830	6.41188e+56
1627.64460	6.59929e+56
1628.45090	6.97437e+56
1629.25720	6.81154e+56
1630.06350	6.80857e+56
1630.86980	7.07827e+56
1631.67610	7.14129e+56
1632.48240	6.84063e+56
1633.28870	7.07349e+56
1634.09500	7.53818e+56
1634.90130	7.19573e+56
1635.70760	7.40015e+56
1636.51390	6.89972e+56
1637.32020	6.46994e+56
1638.12650	6.79678e+56
1638.93280	6.60965e+56
1639.73910	6.85061e+56
1640.54540	6.99604e+56
1641.35170	6.49999e+56
1642.15800	6.51700e+56
1642.96430	6.55105e+56
1643.77060	6.50962e+56
1644.57690	6.77747e+56
1645.38320	6.44321e+56
1646.18950	6.02712e+56
1646.99580	5.76292e+56
1647.80210	5.80778e+56
1648.60840	5.68642e+56
1649.41470	5.51647e+56
1650.22100	5.20011e+56
1651.02730	5.21990e+56
1651.83360	5.27998e+56
1652.63990	5.42898e+56
1653.44620	5.51992e+56
1654.25250	5.39750e+56
1655.05880	5.12795e+56
1655.86510	5.14553e+56
1656.67140	5.20951e+56
1657.47770	5.12026e+56
1658.28400	4.96318e+56
1659.09030	4.59905e+56
1659.89660	5.25355e+56
1660.70290	5.19901e+56
1661.50920	5.14720e+56
1662.31550	5.11307e+56
1663.12180	5.03590e+56
1663.92810	5.03423e+56
1664.73440	5.24160e+56
1665.54070	5.32843e+56
1666.34700	4.99513e+56
1667.15330	5.13760e+56
1667.95960	5.05093e+56
1668.76590	5.08743e+56
1669.57220	4.97703e+56
1670.37850	5.06257e+56
1671.18480	5.02090e+56
1671.99110	5.15261e+56
1672.79740	5.03017e+56
1673.60370	4.90693e+56
1674.41000	5.22243e+56
1675.21630	5.06462e+56
1676.02260	5.38971e+56
1676.82890	4.95882e+56
1677.63520	5.17837e+56
1678.44150	5.37390e+56
1679.24780	5.25592e+56
1680.05410	5.34550e+56
1680.86040	5.61690e+56
1681.66670	5.64867e+56
1682.47300	5.75269e+56
1683.27930	5.43307e+56
1684.08560	5.07070e+56
1684.89190	5.11501e+56
1685.69820	5.08336e+56
1686.50450	5.05123e+56
1687.31080	5.21227e+56
1688.11710	5.68386e+56
1688.92340	5.62203e+56
1689.72970	5.56575e+56
1690.53600	5.67486e+56
1691.34230	5.53092e+56
1692.14860	5.77225e+56
1692.95490	5.91935e+56
1693.76120	6.10565e+56
1694.56750	5.86095e+56
1695.37380	6.21100e+56
1696.18010	5.92456e+56
1696.98640	6.06957e+56
1697.79270	6.40842e+56
1698.59900	6.00952e+56
1699.40530	6.18646e+56
1700.21160	6.53360e+56
1701.01790	6.41449e+56
1701.82420	6.47021e+56
1702.63050	6.59490e+56
1703.43680	6.70106e+56
1704.24310	6.65432e+56
1705.04940	6.28718e+56
1705.85570	6.28583e+56
1706.66200	6.21441e+56
1707.46830	6.05030e+56
1708.27460	5.96100e+56
1709.08090	5.98945e+56
1709.88720	5.96656e+56
1710.69350	5.97223e+56
1711.49980	5.85704e+56
1712.30610	5.51924e+56
1713.11240	5.52046e+56
1713.91870	5.53100e+56
1714.72500	5.68260e+56
1715.53130	5.85131e+56
1716.33760	5.90110e+56
1717.14390	5.78241e+56
1717.95020	5.53215e+56
1718.75650	5.56537e+56
1719.56280	5.24675e+56
1720.36910	5.15973e+56
1721.17540	5.06595e+56
1721.98170	5.08895e+56
1722.78800	5.10486e+56
1723.59430	5.23538e+56
1724.40060	5.43272e+56
1725.20690	5.17389e+56
1726.01320	5.27686e+56
1726.81950	5.04694e+56
1727.62580	4.98998e+56
1728.43210	5.06281e+56
1729.23840	4.74906e+56
1730.04470	4.93652e+56
1730.85100	4.98289e+56
1731.65730	5.06578e+56
1732.46360	4.85171e+56
1733.26990	4.92063e+56
1734.07620	4.88209e+56
1734.88250	4.93804e+56
1735.68880	4.86268e+56
1736.49510	4.86716e+56
1737.30140	4.91954e+56
1738.10770	5.10835e+56
1738.91400	4.61746e+56
1739.72030	5.05184e+56
1740.52660	5.16811e+56
1741.33290	4.89040e+56
1742.13920	5.07688e+56
1742.94550	4.91515e+56
1743.75180	5.19951e+56
1744.55810	5.42132e+56
1745.36440	5.74875e+56
1746.17070	5.80055e+56
1746.97700	5.89957e+56
1747.78330	5.26276e+56
1748.58960	5.57321e+56
1749.39590	5.45731e+56
1750.20220	5.95465e+56
1751.00850	5.59839e+56
1751.81480	5.91473e+56
1752.62110	5.66051e+56
1753.42740	5.91943e+56
1754.23370	6.31937e+56
1755.04000	6.61071e+56
1755.84630	6.19584e+56
1756.65260	6.62976e+56
1757.45890	6.42395e+56
1758.26520	6.63860e+56
1759.07150	6.57027e+56
1759.87780	6.16303e+56
1760.68410	6.33887e+56
1761.49040	6.01122e+56
1762.29670	5.91395e+56
1763.10300	5.84823e+56
1763.90930	5.70133e+56
1764.71560	5.58449e+56
1765.52190	5.39786e+56
1766.32820	5.51487e+56
1767.13450	5.24053e+56
1767.94080	5.63655e+56
1768.74710	5.62094e+56
1769.55340	5.52985e+56
1770.35970	5.18796e+56
1771.16600	5.19089e+56
1771.97230	5.22344e+56
1772.77860	5.32201e+56
1773.58490	5.39158e+56
1774.39120	5.29490e+56
1775.19750	5.56594e+56
1776.00380	5.04273e+56
1776.81010	4.63882e+56
1777.61640	4.89395e+56
1778.42270	5.32411e+56
1779.22900	5.04377e+56
1780.03530	5.39123e+56
1780.84160	5.02920e+56
1781.64790	5.33817e+56
1782.45420	5.16548e+56
1783.26050	5.30235e+56
1784.06680	5.11990e+56
1784.87310	5.31951e+56
1785.67940	5.45334e+56
1786.48570	5.25699e+56
1787.29200	5.39205e+56
1788.09830	5.20526e+56
1788.90460	5.15347e+56
1789.71090	5.18479e+56
1790.51720	5.01465e+56
1791.32350	5.41807e+56
1792.12980	5.29002e+56
1792.93610	5.22659e+56
1793.74240	5.08446e+56
1794.54870	5.32710e+56
1795.35500	5.32912e+56
1796.16130	5.20018e+56
1796.96760	5.41973e+56
1797.77390	5.46822e+56
1798.58020	5.27531e+56
1799.38650	5.70832e+56
1800.19280	5.57554e+56
1800.99910	5.57745e+56
1801.80540	5.78488e+56
1802.61170	6.07641e+56
1803.41800	5.50514e+56
1804.22430	5.93698e+56
1805.03060	6.23563e+56
1805.83690	6.52740e+56
1806.64320	6.65912e+56
1807.44950	6.72055e+56
1808.25580	6.51235e+56
1809.06210	6.73714e+56
1809.86840	6.81673e+56
1810.67470	6.81167e+56
1811.48100	6.00058e+56
1812.28730	6.26369e+56
1813.09360	6.16262e+56
1813.89990	6.21101e+56
1814.70620	5.74660e+56
1815.51250	5.87475e+56
1816.31880	5.68303e+56
1817.12510	5.63160e+56
1817.93140	5.50445e+56
1818.73770	5.46913e+56
1819.54400	5.29316e+56
1820.35030	5.15778e+56
1821.15660	5.12823e+56
1821.96290	4.98353e+56
1822.76920	4.88753e+56
1823.57550	5.11206e+56
1824.38180	5.13217e+56
1825.18810	4.98126e+56
1825.99440	4.82626e+56
1826.80070	4.97726e+56
1827.60700	5.04047e+56
1828.41330	4.85466e+56
1829.21960	5.24721e+56
1830.02590	5.18644e+56
1830.83220	5.11546e+56
1831.63850	5.09230e+56
1832.44480	5.35357e+56
1833.25110	5.54886e+56
1834.05740	4.91082e+56
1834.86370	4.89110e+56
1835.67000	5.02126e+56
1836.47630	4.98592e+56
1837.28260	5.07862e+56
1838.08890	5.01675e+56
1838.89520	5.21230e+56
1839.70150	5.11704e+56
1840.50780	5.19825e+56
1841.31410	5.37123e+56
1842.12040	5.24047e+56
1842.92670	5.08993e+56
1843.73300	5.42302e+56
1844.53930	5.34235e+56
1845.34560	5.80566e+56
1846.15190	5.55154e+56
1846.95820	5.54144e+56
1847.76450	6.02344e+56
1848.57080	6.22473e+56
1849.37710	6.11785e+56
1850.18340	6.48731e+56
1850.98970	6.25819e+56
1851.79600	6.50596e+56
1852.60230	6.50581e+56
1853.40860	6.44177e+56
1854.21490	6.56629e+56
1855.02120	6.33120e+56
1855.82750	6.32957e+56
1856.63380	6.23026e+56
1857.44010	6.26568e+56
1858.24640	4.56582e+56
1859.05270	5.77570e+56
1859.85900	6.05912e+56
1860.66530	5.94477e+56
1861.47160	5.95776e+56
1862.27790	5.56628e+56
1863.08420	5.91515e+56
1863.89050	5.53048e+56
1864.69680	5.00327e+56
1865.50310	5.03456e+56
1866.30940	5.05324e+56
1867.11570	5.28066e+56
1867.92200	4.94130e+56
1868.72830	4.88943e+56
1869.53460	4.94762e+56
1870.34090	4.89354e+56
1871.14720	4.89576e+56
1871.95350	5.03670e+56
1872.75980	4.95719e+56
1873.56610	4.74551e+56
1874.37240	4.80677e+56
1875.17870	4.98112e+56
1875.98500	4.33130e+56
1876.79130	4.39300e+56
1877.59760	4.82482e+56
1878.40390	4.90337e+56
1879.21020	5.05374e+56
1880.01650	4.93294e+56
1880.82280	5.05333e+56
1881.62910	4.37002e+56
1882.43540	4.89442e+56
1883.24170	5.34826e+56
1884.04800	5.12200e+56
1884.85430	5.07500e+56
1885.66060	5.18704e+56
1886.46690	5.75699e+56
1887.27320	5.63706e+56
1888.07950	5.48806e+56
1888.88580	5.71324e+56
1889.69210	5.28684e+56
1890.49840	5.00140e+56
1891.30470	5.40569e+56
1892.11100	5.59286e+56
1892.91730	6.17174e+56
1893.72360	5.94907e+56
1894.52990	6.17232e+56
1895.33620	6.62495e+56
1896.14250	6.32948e+56
1896.94880	6.60834e+56
1897.75510	6.39695e+56
1898.56140	6.53503e+56
1899.36770	6.54898e+56
1900.17400	6.85596e+56
1900.98030	6.72202e+56
1901.78660	5.32861e+56
1902.59290	4.79306e+56
1903.39920	4.59057e+56
1904.20550	5.32349e+56
1905.01180	5.41330e+56
1905.81810	5.42942e+56
1906.62440	5.50819e+56
1907.43070	5.97628e+56
1908.23700	6.25829e+56
1909.04330	5.72491e+56
1909.84960	5.48123e+56
1910.65590	5.20719e+56
1911.46220	5.31143e+56
1912.26850	5.06841e+56
1913.07480	4.96329e+56
1913.88110	4.59188e+56
1914.68740	4.34662e+56
1915.49370	4.88884e+56
1916.30000	4.83583e+56
1917.10630	5.00786e+56
1917.91260	5.08231e+56
1918.71890	5.17178e+56
1919.52520	5.39675e+56
1920.33150	5.24797e+56
1921.13780	5.00293e+56
1921.94410	4.83417e+56
1922.75040	5.72358e+56
1923.55670	5.05496e+56
1924.36300	5.22062e+56
1925.16930	5.98807e+56
1925.97560	5.83417e+56
1926.78190	5.61337e+56
1927.58820	5.84185e+56
1928.39450	6.26318e+56
1929.20080	6.39318e+56
1930.00710	6.41960e+56
1930.81340	6.38090e+56
1931.61970	6.62870e+56
1932.42600	6.66681e+56
1933.23230	6.58808e+56
1934.03860	6.58037e+56
1934.84490	5.60236e+56
1935.65120	6.89836e+56
1936.45750	6.75587e+56
1937.26380	6.35239e+56
1938.07010	6.35351e+56
1938.87640	6.72879e+56
1939.68270	6.03452e+56
1940.48900	5.60283e+56
1941.29530	5.75510e+56
1942.10160	5.84610e+56
1942.90790	6.05889e+56
1943.71420	6.03171e+56
1944.52050	6.10472e+56
1945.32680	5.97052e+56
1946.13310	5.57059e+56
1946.93940	5.11182e+56
1947.74570	4.88501e+56
1948.55200	5.17269e+56
1949.35830	4.65903e+56
1950.16460	5.68099e+56
1950.97090	5.71120e+56
1951.77720	5.33371e+56
1952.58350	5.35728e+56
1953.38980	5.57702e+56
1954.19610	5.54407e+56
1955.00240	5.29204e+56
1955.80870	4.35546e+56
1956.61500	4.55791e+56
1957.42130	5.56467e+56
1958.22760	6.22694e+56
1959.03390	5.83093e+56
1959.84020	5.24804e+56
1960.64650	5.97526e+56
1961.45280	6.01477e+56
1962.25910	6.05976e+56
1963.06540	6.47389e+56
1963.87170	6.94284e+56
1964.67800	5.33157e+56
1965.48430	6.45241e+56
1966.29060	7.03462e+56
1967.09690	5.90964e+56
1967.90320	5.62273e+56
1968.70950	6.22704e+56
1969.51580	6.88572e+56
1970.32210	6.80384e+56
1971.12840	6.68580e+56
1971.93470	5.98923e+56
1972.74100	5.87637e+56
1973.54730	6.56127e+56
1974.35360	5.83649e+56
1975.15990	5.94277e+56
1975.96620	6.42994e+56
1976.77250	5.93606e+56
1977.57880	5.62378e+56
1978.38510	5.22227e+56
1979.19140	5.62770e+56
1979.99770	5.00923e+56
1980.80400	5.02381e+56
1981.61030	4.84106e+56
1982.41660	4.71084e+56
1983.22290	4.87313e+56
1984.02920	5.72160e+56
1984.83550	5.60088e+56
1985.64180	5.90648e+56
1986.44810	4.70758e+56
1987.25440	4.68652e+56
1988.06070	5.00389e+56
1988.86700	5.79408e+56
1989.67330	5.02444e+56
1990.47960	5.10666e+56
1991.28590	5.18350e+56
1992.09220	5.85040e+56
1992.89850	5.83377e+56
1993.70480	6.16284e+56
1994.51110	6.05216e+56
1995.31740	5.06524e+56
1996.12370	5.60205e+56
1996.93000	5.02743e+56
1997.73630	5.19257e+56
1998.54260	6.73831e+56
1999.34890	7.03035e+56
2000.15520	6.31873e+56
2000.96150	5.20225e+56
2001.76780	6.06758e+56
2002.57410	6.37032e+56
2003.38040	6.49831e+56
2004.18670	6.11249e+56
2004.99300	6.62661e+56
2005.79930	5.23769e+56
2006.60560	5.04261e+56
2007.41190	5.20979e+56
2008.21820	5.27732e+56
2009.02450	5.61255e+56
2009.83080	5.54440e+56
2010.63710	5.28130e+56
2011.44340	5.01499e+56
2012.24970	4.97266e+56
2013.05600	5.54744e+56
2013.86230	5.45822e+56
2014.66860	5.59779e+56
2015.47490	4.89579e+56
2016.28120	5.90480e+56
2017.08750	5.34090e+56
2017.89380	5.37399e+56
2018.70010	6.35551e+56
2019.50640	6.75373e+56
2020.31270	6.91451e+56
2021.11900	6.08229e+56
2021.92530	6.08113e+56
2022.73160	6.24294e+56
2023.53790	6.52832e+56
2024.34420	6.20568e+56
2025.15050	5.66040e+56
2025.95680	5.98969e+56
2026.76310	6.12913e+56
2027.56940	6.93238e+56
2028.37570	6.85581e+56
2029.18200	6.61464e+56
2029.98830	6.45452e+56
2030.79460	6.36595e+56
2031.60090	5.99599e+56
2032.40720	6.31802e+56
2033.21350	6.26424e+56
2034.01980	6.03514e+56
2034.82610	6.10259e+56
2035.63240	5.71700e+56
2036.43870	5.55492e+56
2037.24500	5.66317e+56
2038.05130	6.39514e+56
2038.85760	6.54364e+56
2039.66390	6.24765e+56
2040.47020	5.51533e+56
2041.27650	6.51733e+56
2042.08280	6.81505e+56
2042.88910	6.59605e+56
2043.69540	7.58167e+56
2044.50170	7.85030e+56
2045.30800	8.19246e+56
2046.11430	8.28405e+56
2046.92060	6.12423e+56
2047.72690	6.49175e+56
2048.53320	8.21709e+56
2049.33950	8.43710e+56
2050.14580	8.31232e+56
2050.95210	7.30291e+56
2051.75840	6.50084e+56
2052.56470	7.62492e+56
2053.37100	6.55746e+56
2054.17730	6.55527e+56
2054.98360	7.42581e+56
2055.78990	7.55981e+56
2056.59620	6.79245e+56
2057.40250	5.97777e+56
2058.20880	6.16373e+56
2059.01510	6.50789e+56
2059.82140	7.22970e+56
2060.62770	7.51334e+56
2061.43400	1.29099e+57
2062.24030	1.89496e+57
2063.04660	1.47917e+57
2063.85290	1.28118e+57
2064.65920	1.37014e+57
2065.46550	1.23938e+57
2066.27180	1.06533e+57
2067.07810	1.21735e+57
2067.88440	9.70681e+56
2068.69070	8.37083e+56
2069.49700	8.46790e+56
2070.30330	9.30330e+56
2071.10960	9.96373e+56
2071.91590	6.59811e+56
2072.72220	5.81610e+56
2073.52850	6.33354e+56
2074.33480	6.79012e+56
2075.14110	6.45078e+56
2075.94740	8.32196e+56
2076.75370	7.94799e+56
2077.56000	6.60781e+56
2078.36630	6.51217e+56
2079.17260	6.41897e+56
2079.97890	6.52771e+56
2080.78520	7.94956e+56
2081.59150	6.72917e+56
2082.39780	6.91096e+56
2083.20410	6.99059e+56
2084.01040	7.40592e+56
2084.81670	7.91761e+56
2085.62300	7.46792e+56
2086.42930	7.66675e+56
2087.23560	8.56504e+56
2088.04190	8.27914e+56
2088.84820	8.62153e+56
2089.65450	9.16438e+56
2090.46080	8.76624e+56
2091.26710	9.80031e+56
2092.07340	8.72815e+56
2092.87970	9.11039e+56
2093.68600	9.50685e+56
2094.49230	1.34885e+57
2095.29860	1.10809e+57
2096.10490	1.15176e+57
2096.91120	1.30038e+57
2097.71750	1.42072e+57
2098.52380	1.00537e+57
2099.33010	9.72898e+56
2100.13640	1.01708e+57
2100.94270	1.01477e+57
2101.74900	1.03735e+57
2102.55530	1.13295e+57
2103.36160	1.05533e+57
2104.16790	1.18538e+57
2104.97420	1.19904e+57
2105.78050	1.30326e+57
2106.58680	1.42671e+57
2107.39310	1.45758e+57
2108.19940	1.44915e+57
2109.00570	1.38219e+57
2109.81200	1.40439e+57
2110.61830	1.30191e+57
2111.42460	1.38519e+57
2112.23090	1.40894e+57
2113.03720	1.48169e+57
2113.84350	1.83242e+57
2114.64980	2.51485e+57
2115.45610	1.62831e+57
2116.26240	2.76262e+57
2117.06870	1.83169e+57
2117.87500	2.04467e+57
2118.68130	1.97391e+57
2119.48760	1.99509e+57
2120.29390	2.40003e+57
2121.10020	1.98266e+57
2121.90650	2.77131e+57
2122.71280	2.72074e+57
2123.51910	2.30410e+57
2124.32540	2.25371e+57
2125.13170	2.59341e+57
2125.93800	3.12743e+57
2126.74430	3.14852e+57
2127.55060	2.22294e+57
2128.35690	2.78673e+57
2129.16320	3.14118e+57
2129.96950	3.08697e+57
2130.77580	3.25270e+57
2131.58210	3.47264e+57
2132.38840	2.96460e+57
2133.19470	3.14564e+57
2134.00100	2.96288e+57
2134.80730	4.02304e+57
2135.61360	4.34482e+57
2136.41990	4.22528e+57
2137.22620	4.63717e+57
2138.03250	3.93037e+57
2138.83880	3.60011e+57
2139.64510	3.53635e+57
2140.45140	3.25856e+57
2141.25770	3.41398e+57
2142.06400	3.90514e+57
2142.87030	3.78555e+57
2143.67660	4.97132e+57
2144.48290	6.07413e+57
2145.28920	5.52771e+57
2146.09550	5.13388e+57
2146.90180	3.84392e+57
2147.70810	4.05499e+57
2148.51440	4.53170e+57
2149.32070	4.01772e+57
2150.12700	3.99628e+57
2150.93330	3.60222e+57
2151.73960	3.61696e+57
2152.54590	4.21734e+57
2153.35220	4.62937e+57
2154.15850	4.15312e+57
2154.96480	4.53885e+57
2155.77110	5.37557e+57
2156.57740	6.65783e+57
2157.38370	5.58506e+57
2158.19000	4.81613e+57
2158.99630	4.91678e+57
2159.80260	4.89740e+57
2160.60890	5.38213e+57
2161.41520	4.30627e+57
2162.22150	4.86927e+57
2163.02780	3.95419e+57
2163.83410	3.79598e+57
2164.64040	3.86730e+57
2165.44670	3.97762e+57
2166.25300	5.53974e+57
2167.05930	6.04402e+57
2167.86560	4.85794e+57
2168.67190	5.59044e+57
2169.47820	6.02838e+57
2170.28450	5.73135e+57
2171.09080	3.76228e+57
2171.89710	3.31891e+57
2172.70340	4.97700e+57
2173.50970	3.05190e+57
2174.31600	2.55571e+57
2175.12230	4.36359e+57
2175.92860	2.28547e+57
2176.73490	3.36994e+57
2177.54120	3.13474e+57
2178.34750	1.95291e+57
2179.15380	   nan
2179.96010	   nan
2180.76640	   nan
2181.57270	   nan
2182.37900	   nan
2183.18530	   nan
2183.99160	   nan
2184.79790	   nan
2185.60420	   nan
2186.41050	   nan
2187.21680	   nan
2188.02310	   nan
2188.82940	   nan
2189.63570	   nan
2190.44200	   nan
2191.24830	   nan
2192.05460	   nan
2192.86090	   nan
2193.66720	   nan
2194.47350	   nan
2195.27980	   nan
2196.08610	   nan
2196.89240	   nan
2197.69870	   nan
2198.50500	   nan
2199.31130	   nan
2200.11760	   nan
2200.92390	   nan
2201.73020	   nan
2202.53650	   nan
2203.34280	   nan
2204.14910	   nan
2204.95540	   nan
2205.76170	   nan
2206.56800	   nan
2207.37430	   nan
2208.18060	   nan
2208.98690	   nan
2209.79320	   nan
2210.59950	   nan
2211.40580	   nan
2212.21210	   nan
2213.01840	   nan
2213.82470	   nan
2214.63100	   nan
2215.43730	0.00000e+00
